File: smoothing_ref/dvdqraw/S25_291_anode_dchg_02C - 복사본.txt
Capacity (mAh), Voltage (V)
0, 0.0984173
0.0631377, 0.102063
0.0704596, 0.101887
0.0777815, 0.102456
0.0851034, 0.102479
0.0924254, 0.102942
0.0997473, 0.103013
0.107069, 0.103005
0.114391, 0.103439
0.121713, 0.103433
0.129035, 0.103948
0.136357, 0.10417
0.143679, 0.104594
0.151001, 0.104428
0.158323, 0.1049652
0.165645, 0.105446
0.172967, 0.104994
0.180288, 0.105566
0.18761, 0.105163
0.194932, 0.106265
0.202254, 0.105508
0.209576, 0.105882
0.216898, 0.106018
0.22422, 0.10662
0.2315419, 0.106665
0.238864, 0.106868
0.246186, 0.106974
0.253508, 0.106667
0.26083, 0.106803
0.268152, 0.10725
0.275473, 0.107441
0.282795, 0.107227
0.290117, 0.107262
0.297439, 0.107281
0.304761, 0.107063
0.312083, 0.107747
0.319405, 0.107703
0.326727, 0.107753
0.334049, 0.10775
0.341371, 0.108001
0.348693, 0.108267
0.356015, 0.10814
0.363337, 0.108207
0.370658, 0.108432
0.37798, 0.108859
0.385302, 0.108899
0.392624, 0.109397
0.399946, 0.109342
0.407268, 0.109714
0.41459, 0.109736
0.421912, 0.110127
0.429234, 0.1105957
0.436556, 0.110496
0.443878, 0.11079
0.4512, 0.110942
0.458522, 0.111267
0.465843, 0.111339
0.473165, 0.111612
0.480487, 0.111962
0.487809, 0.112086
0.495131, 0.112322
0.502453, 0.112349
0.509775, 0.112809
0.517097, 0.112874
0.524419, 0.113249
0.531741, 0.113469
0.539063, 0.113875
0.546385, 0.113967
0.553707, 0.1141243
0.561028, 0.114525
0.56835, 0.114501
0.575672, 0.115081
0.582994, 0.115177
0.590316, 0.115534
0.597638, 0.115663
0.60496, 0.115928
0.612282, 0.116654
0.619604, 0.116865
0.626926, 0.116697
0.634248, 0.116973
0.64157, 0.117347
0.648892, 0.117468
0.656213, 0.117926
0.663535, 0.117959
0.670857, 0.118206
0.678179, 0.118233
0.685501, 0.118512
0.692823, 0.11914
0.700145, 0.119239
0.707467, 0.119568
0.714789, 0.119558
0.722111, 0.120078
0.729433, 0.120239
0.736755, 0.120571
0.744077, 0.120805
0.751398, 0.121045
0.75872, 0.121618
0.766042, 0.121955
0.773364, 0.122356
0.780686, 0.12281
0.788008, 0.1228
0.79533, 0.123189
0.802652, 0.123503
0.809974, 0.123323
0.817296, 0.123745
0.824618, 0.124525
0.83194, 0.124777
0.839262, 0.124795
0.846583, 0.125089
0.853905, 0.125518
0.861227, 0.125918
0.868549, 0.1263
0.875871, 0.12673
0.883193, 0.127019
0.890515, 0.127255
0.897837, 0.127904
0.905159, 0.128333
0.912481, 0.129005
0.919803, 0.129819
0.927125, 0.130448
0.934447, 0.131175
0.941768, 0.131976
0.94909, 0.1328
0.956412, 0.13336
0.963734, 0.134538
0.971056, 0.135611
0.978378, 0.136765
0.9857, 0.13794
0.993022, 0.138887
1.00034, 0.139997
1.00767, 0.141009
1.01499, 0.14177
1.02231, 0.142798
1.02963, 0.1436
1.03695, 0.144217
1.04428, 0.144849
1.0516, 0.145356
1.05892, 0.145937
1.06624, 0.146458
1.07356, 0.146857
1.08088, 0.147315
1.08821, 0.147401
1.09553, 0.147648
1.10285, 0.147969
1.11017, 0.147981
1.11749, 0.148272
1.12482, 0.148363
1.13214, 0.148398
1.13946, 0.148772
1.14678, 0.149077
1.1541, 0.149171
1.16143, 0.149241
1.16875, 0.149582
1.17607, 0.149514
1.18339, 0.149617
1.19071, 0.14994
1.19804, 0.150167
1.20536, 0.150193
1.21268, 0.150039
1.22, 0.150562
1.22732, 0.150506
1.23465, 0.151016
1.24197, 0.150916
1.24929, 0.151074
1.25661, 0.151503
1.26393, 0.151401
1.27125, 0.151802
1.27858, 0.151684
1.2859, 0.152095
1.29322, 0.152158
1.30054, 0.152147
1.30786, 0.152187
1.31519, 0.152583
1.32251, 0.152665
1.32983, 0.15314
1.33715, 0.153349
1.34447, 0.153086
1.3518, 0.153325
1.35912, 0.153544
1.36644, 0.15357
1.37376, 0.153804
1.38108, 0.153988
1.38841, 0.153983
1.39573, 0.154552
1.40305, 0.154802
1.41037, 0.154824
1.41769, 0.155172
1.42502, 0.155254
1.43234, 0.155419
1.43966, 0.155455
1.44698, 0.155962
1.4543, 0.155963
1.46162, 0.156074
1.46895, 0.156174
1.47627, 0.156413
1.48359, 0.156783
1.49091, 0.157048
1.49823, 0.157171
1.50556, 0.157415
1.51288, 0.157907
1.5202, 0.15813
1.52752, 0.158262
1.53484, 0.158505
1.54217, 0.158779
1.54949, 0.158976
1.55681, 0.159326
1.56413, 0.159579
1.57145, 0.15982
1.57878, 0.160217
1.5861, 0.160041
1.59342, 0.160585
1.60074, 0.160862
1.60806, 0.16158
1.61539, 0.162022
1.62271, 0.162343
1.63003, 0.162632
1.63735, 0.163311
1.64467, 0.163834
1.652, 0.164294
1.65932, 0.164856
1.66664, 0.165613
1.67396, 0.166455
1.68128, 0.167032
1.6886, 0.1677924
1.69593, 0.168824
1.70325, 0.16986
1.71057, 0.170774
1.71789, 0.171679
1.72521, 0.172709
1.73254, 0.173618
1.73986, 0.174439
1.74718, 0.175611
1.7545, 0.176539
1.76182, 0.177511
1.76915, 0.178536
1.77647, 0.1797
1.78379, 0.18069
1.79111, 0.181865
1.79843, 0.182924
1.80576, 0.183881
1.81308, 0.184605
1.8204, 0.18573
1.82772, 0.186654
1.83504, 0.187671
1.84237, 0.188525
1.84969, 0.189439
1.85701, 0.190497
1.86433, 0.191523
1.87165, 0.192451
1.87897, 0.193811
1.8863, 0.194829
1.89362, 0.196204
1.90094, 0.197548
1.90826, 0.199074
1.91558, 0.200446
1.92291, 0.202261
1.93023, 0.203872
1.93755, 0.205457
1.94487, 0.207422
1.95219, 0.209328
1.95952, 0.211079
1.96684, 0.212898
1.97416, 0.214919
1.98148, 0.216697
1.9888, 0.21856
1.99613, 0.220644
2.00345, 0.223133
2.01077, 0.225058
2.01809, 0.227619
2.02541, 0.229782
2.03274, 0.231402
2.04006, 0.2328463
2.04738, 0.233752
2.0547, 0.234371
2.06202, 0.234925
2.06934, 0.235561
2.07667, 0.236159
2.08399, 0.236812
2.09131, 0.237404
2.09863, 0.23804
2.10595, 0.238444
2.11328, 0.239156
2.1206, 0.240054
2.12792, 0.240358
2.13524, 0.241152
2.14256, 0.2423672
2.14989, 0.243043
2.15721, 0.243886
2.16453, 0.244935
2.17185, 0.246542
2.17917, 0.248799
2.1865, 0.252035
2.19382, 0.256402
2.20114, 0.263442
2.20846, 0.272241
2.21578, 0.283923
2.24595, 0.341341
2.2898, 0.498613
2.32523, 1.20742
2.32652, 1.35645