File: smoothing_ref/dvdqraw/S25_291_cathode_dchg_02C - 복사본.txt
Capacity (mAh), Voltage (V)
0, 4.51557
0.006941361, 4.4951
0.0148083, 4.49145
0.02294, 4.48821
0.0310055, 4.485
0.0389388, 4.48283
0.0471366, 4.47957
0.0550698, 4.4767
0.0633337, 4.47357
0.0715313, 4.4706
0.0797951, 4.46827
0.0879928, 4.46513
0.09605825, 4.46229
0.103991, 4.45926
0.111792, 4.45613
0.119395, 4.45313
0.12713, 4.45013
0.134997, 4.44712
0.142666, 4.44411
0.150533, 4.44048
0.158334, 4.43713
0.166069, 4.43413
0.173738, 4.43067
0.181803, 4.42717
0.189538, 4.42357
0.197207, 4.42057
0.205141, 4.41654
0.212677, 4.41357
0.220478, 4.40957
0.228411, 4.40572
0.236675, 4.40257
0.244807, 4.39786
0.252674, 4.39442
0.260806, 4.39028
0.268937, 4.38628
0.277069, 4.382
0.285135, 4.378
0.293068, 4.374
0.301067, 4.36957
0.308538, 4.36558
0.316735, 4.36111
0.324801, 4.35728
0.332932, 4.35267
0.340998, 4.34842
0.348667, 4.34441
0.356798, 4.33994
0.364666, 4.33572
0.372929, 4.33103
0.381392, 4.32676
0.389258, 4.32269
0.397522, 4.31777
0.405852, 4.31343
0.414182, 4.30909
0.422512, 4.30472
0.430776, 4.3
0.438643, 4.29572
0.446709, 4.29111
0.454973, 4.287
0.462774, 4.28271
0.470575, 4.27847
0.478508, 4.27395
0.486309, 4.27004
0.493846, 4.26566
0.501449, 4.26182
0.509448, 4.25748
0.517315, 4.25328
0.525315, 4.24924
0.532917, 4.24516
0.540719, 4.24072
0.54852, 4.23677
0.556321, 4.23242
0.564188, 4.22861
0.572386, 4.22426
0.580517, 4.22032
0.588649, 4.21576
0.59645, 4.21175
0.604317, 4.20762
0.611854, 4.20395
0.619721, 4.19995
0.627984, 4.19546
0.635719, 4.19165
0.643785, 4.18735
0.651784, 4.18332
0.659849, 4.17943
0.667584, 4.17559
0.675782, 4.17131
0.683913, 4.16769
0.692045, 4.16381
0.700176, 4.15967
0.708242, 4.15571
0.71624, 4.15184
0.724372, 4.14836
0.732107, 4.14461
0.740172, 4.14071
0.748039, 4.13716
0.755443, 4.13367
0.763575, 4.1297
0.771706, 4.12616
0.779639, 4.1225
0.788035, 4.11863
0.79577, 4.11511
0.803902, 4.11157
0.811901, 4.10783
0.81957, 4.10465
0.827635, 4.10112
0.835502, 4.09755
0.843369, 4.09426
0.851632, 4.09073
0.859896, 4.08726
0.867962, 4.08402
0.876292, 4.08053
0.884093, 4.07717
0.892224, 4.07411
0.900422, 4.07079
0.908487, 4.06768
0.916817, 4.06457
0.924948, 4.06117
0.93308, 4.0581
0.941344, 4.05502
0.949541, 4.05196
0.957673, 4.04892
0.966069, 4.04587
0.974068, 4.04306
0.9823975, 4.04028
0.990661, 4.03728
0.998594, 4.03428
1.00712, 4.03144
1.01545, 4.02878
1.02352, 4.0255
1.03191, 4.023
1.04051, 4.01994
1.04897, 4.01699
1.05684, 4.01481
1.0651, 4.01228
1.0731, 4.0095
1.08169, 4.00692
1.09009, 4.00428
1.09842, 4.00211
1.10662, 3.99941
1.11501, 3.997
1.12295, 3.99474
1.13134, 3.99228
1.13954, 3.99006
1.1478, 3.98768
1.15607, 3.98528
1.16433, 3.98307
1.1724, 3.98101
1.1804, 3.97885
1.18853, 3.97651
1.19633, 3.97449
1.20433, 3.97209
1.21246, 3.9702
1.22053, 3.96817
1.22866, 3.96613
1.23685, 3.96432
1.24485, 3.96212
1.25312, 3.96013
1.26118, 3.95848
1.26925, 3.95613
1.27712, 3.9546
1.28505, 3.95291
1.29298, 3.95103
1.30085, 3.94941
1.30865, 3.94719
1.31645, 3.94569
1.32412, 3.94413
1.33238, 3.94213
1.34058, 3.94064
1.34871, 3.93909
1.35685, 3.93734
1.36491, 3.93591
1.37284, 3.93441
1.38091, 3.93276
1.38897, 3.9314
1.3973, 3.92954
1.4057, 3.92824
1.41403, 3.92677
1.42229, 3.9252
1.43003, 3.92387
1.4381, 3.92265
1.44636, 3.92098
1.45442, 3.9197
1.46269, 3.91852
1.47082, 3.91698
1.47888, 3.91598
1.48682, 3.91461
1.49475, 3.91348
1.50295, 3.9122
1.51082, 3.91098
1.51908, 3.91002
1.52728, 3.90898
1.53548, 3.90776
1.54394, 3.90657
1.55227, 3.90548
1.5606, 3.90448
1.56886, 3.90359
1.57719, 3.90248
1.58565, 3.90148
1.59425, 3.90048
1.60278, 3.89998
1.61097, 3.89898
1.61917, 3.89798
1.62724, 3.89743
1.63523, 3.89648
1.64343, 3.8957
1.6517, 3.8952
1.65943, 3.89448
1.66763, 3.89376
1.67569, 3.89305
1.68376, 3.89251
1.69182, 3.8917
1.69989, 3.8912
1.70802, 3.89062
1.71615, 3.8902
1.72402, 3.8897
1.73222, 3.8892
1.740019, 3.88863
1.74802, 3.88804
1.75602, 3.88794
1.76415, 3.88743
1.77235, 3.88726
1.78041, 3.88663
1.78861, 3.88633
1.79674, 3.88604
1.80461, 3.88583
1.81261, 3.88557
1.82081, 3.88505
1.82887, 3.88467
1.83674, 3.88417
1.8448, 3.88396
1.85294, 3.88374
1.86126, 3.88324
1.86933, 3.88274
1.87766, 3.88252
1.88586, 3.8824
1.89386, 3.88209
1.90205, 3.88156
1.91025, 3.88115
1.91845, 3.88065
1.92658, 3.88043
1.93491, 3.88022
1.94337, 3.87959
1.95157, 3.87946
1.9597, 3.87907
1.9679, 3.87857
1.97583, 3.87813
1.98363, 3.87763
1.99143, 3.8772
1.99904, 3.8767
2.0069, 3.87626
2.01484, 3.87583
2.0231, 3.87511
2.0313, 3.87488
2.03976, 3.87396
2.04796, 3.87352
2.05629, 3.87291
2.06448, 3.87211
2.07281, 3.87122
2.08108, 3.87028
2.08941, 3.86963
2.09787, 3.86848
2.10613, 3.86771
2.1144, 3.86649
2.12266, 3.86506
2.13099, 3.86386
2.13952, 3.86217
2.14772, 3.86052
2.15605, 3.85842
2.16438, 3.8563
2.17211, 3.8541
2.18018, 3.85074
2.18817, 3.84726
2.19617, 3.84279
2.20431, 3.83732
2.21244, 3.8301
2.2207, 3.82114
2.22877, 3.80898
2.23703, 3.79323
2.24496, 3.77696
2.25336, 3.75994
2.26122, 3.74546
2.26929, 3.72987
2.27656, 3.70712
2.28364, 3.6744
2.29163, 3.6388
2.30003, 3.60836
2.30843, 3.56845
2.31676, 3.48994
2.32092, 3.42553